resistance
999.52
1000.32
997.87
999.81
999.55
997.27
999.61
1000.53
998.54
1003.8
999.12
1000.37
999.44
999.2
1004.77
999.96
997.68
999.57
999.96
1000.86
1000.12
999.07
998.43
1001.27
999.13
999.96
996.56
998.76
1001.36
1000.81
999.2
996.9
999.94
1002.83
999.21
999.34
1001.05
997.72
1000.85
1000.43
1004.35
1001.22
999.63
997.96
1000.74
997.9
999.9
1000.71
1001.15
999.98
997.36
1002.2
1000.82
1000.53
1004.2
1000.16
1000.05
1000.18
997.62
995.63
997.72
998.95
1000.65
999.54
999.97
1000.36
1000.32
998.62
999.92
998.45
1000.96
1001.49
999.6
999.28
1001.08
998.31
998.13
999.18
999.59
998.57
994.17
999.61
1000.8
998.82
1003.31
999.36
998.72
1002.58
999.07
998.91
999.17
996.66
999.98
1000.6
998.44
999.92
999.86
999.85
1001.25
1001.74
999.35
999.37
1000.78
999.25
999.44
999.8
997.54
1002.42
998.37
1000.57
997.36
999.84
999.99
999.46
1003.81
999.39
1000.4
1000.51
1000.02
998.04
1003.29
998.16
1000.91
1002.52
1000.65
999.65
1000.15
1003.92
1000
999.32
1000.36
1002.64
1003.12
999.97
999.37
998.38
999
1003.63
999.54
1000.68
995.74
1000.54
995.65
999.48
1001.3
998.89
1001.47
1001.2
998.19
995.39
999.98
1000.13
996.07
999.74
999.63
998.94
999.88
1000.69
1003.19
1000.57
1000.04
999.51
998.04
1001.18
998.91
998.19
1000.26
999.44
1000.29
998.8
998.06
1001
998.1
999.09
999.72
999.77
1000.71
998.67
999.5
998.52
1000.06
999.9
1001.95
1000.66
999.95
999.19
1001
998.58
998.15
999.2
997.2
999.66
1000.23
999.13
1001.74
999.8
997.65
1000.21
998.77
1000.17
998.89
999.43
999.7
1002.38
1001.96
998.73
999.34
999.65
1001.15
999.12
1000.45
998.93
1000.42
999.49
1002.09
1003.97
998.39
998.89
999.31
999.45
1000.8
1002.59
1000.6
998.84
999.81
1003.94
998.66
1001.42
999.42
999.67
1003.12
1000.93
1000.09
1000.77
998.78
999.12
1000.43
999.32
1002.07
1000.26
998.45
999.13
998.7
998.82
997.66
998.16
1000.49
1001.38
999.64
998.65
1001.51
1000.65
1001.64
1000.42
999.13
999.15
1000.82
1003.46
1000.68
999.84
996.97
1001.07
1000.43
996.75
998.21
1003.23
999.6
999.14
998.2
999.84
997.8
1001.01
1001.68
1001.6
998.03
1000.5
995.94
999.67
1003.39
1004.67
1001.64
1002.71
999.04
999.88
998.78
1001.78
999.97
1002.28
1000.69
1001.35
998.85
1000.66
1000.66
999.45
1003.04
998.38
1001.18
999.2
1001.37
1000.67
1002.05
1001.21
1000.17
998.26
998.81
1000.21
999.45
1000.28
997.27
998.72
998.57
998.49
999.81
1001.14
1000.39
1000.72
1004.47
1001.3
997.38
999.54
1001.78
997.04
998.88
1001.81
999.77
999.7
1000.51
999.86
1000.19
998.94
1000.85
998.72
999.87
999.04
997.53
999.82
999.08
999.87
997.25
999.84
1000.25
999.4
999.74
999.63
1000.83
999.07
1000.3
997.97
998.64
1001.61
1000.85
999.65
997.4
999.53
998.78
1001.68
999.71
999.07
1002
999.68
1000.47
1001.01
1000.61
999.64
997.66
1004.24
999.02
994.19
999.27
1003.58
997.43
999.61
1003.02
997.76
999.91
1002.43
997.23
999.47
1000.99
1005.15
999.7
1001.24
999.35
1000.52
998.39
999.84
1000.17
998.97
998.38
998.4
999.64
996.79
995.62
999.91
999.02
1001.86
997.3
1001.82
1001.07
999.59
